;PC Software:PMManager Version 3.31 Build 2
! ******* Warning: Do not modify this file. Changes may prevent   ********
! ******* the PMManager Log reader from opening the file correctly. ********
;Logged:14/11/2020 at 14:54:47
;File Version:5
;Time Resolution:1 microseconds
;Log Settings:Sample:of period: 00:00:06
;Graph Mode:Merge
;Graph Type:Line
;Notes:                                                            

;Channel A:843-R-USB Thermopile 919P-030-18 (s/n:950105)  EF1.39 (s/n:947127)
;Channel B:841-PE-USB Thermopile 919P-030-18 (s/n:904190)  FO2.04 (s/n:903878)

;Channel A:Details
;Name:919P-030-18
;Graph Color:RGB(14,104,168)
;Units:W
;Settings:Measuring:Power
;Settings:Wavelength:370
;Settings:Range:AUTO

;Channel B:Details
;Name:919P-030-18
;Graph Color:RGB(245,86,16)
;Units:W
;Settings:Measuring:Power
;Settings:Wavelength:380
;Settings:Range:AUTO

;Channel A:Statistics
;Min:-10.00mW            
;Max:2.582W              
;Average:2.518W              
;Std.Dev.:304.5mW             
;Overrange:0                   

;Channel B:Statistics
;Min:1.383W              
;Max:2.783W              
;Average:2.735W              
;Std.Dev.:208.7mW             
;Overrange:0                   
;--------------------


;First Pulse Arrived : 14/11/2020 at 14:54:47.236000
  Timestamp   	  Channel A  	  Channel B  	
         0.000	  2.576e+000 	             	
         0.025	             	  2.776e+000 	
         6.066	  2.576e+000 	             	
         6.090	             	  2.778e+000 	
        12.000	  2.582e+000 	             	
        12.089	             	  2.783e+000 	
        18.063	  2.569e+000 	             	
        18.088	             	  2.778e+000 	
        24.062	  2.579e+000 	             	
        24.087	             	  2.776e+000 	
        30.060	  2.575e+000 	             	
        30.085	             	  2.773e+000 	
        36.059	  2.581e+000 	             	
        36.084	             	  2.777e+000 	
        42.061	  2.573e+000 	             	
        42.083	             	  2.773e+000 	
        48.056	  2.570e+000 	             	
        48.082	             	  2.778e+000 	
        54.055	  2.573e+000 	             	
        54.081	             	  2.776e+000 	
        60.054	  2.575e+000 	             	
        60.079	             	  2.774e+000 	
        66.052	  2.571e+000 	             	
        66.078	             	  2.776e+000 	
        72.056	  2.568e+000 	             	
        72.077	             	  2.770e+000 	
        78.050	  2.573e+000 	             	
        78.076	             	  2.776e+000 	
        84.049	  2.576e+000 	             	
        84.074	             	  2.770e+000 	
        90.047	  2.571e+000 	             	
        90.073	             	  2.772e+000 	
        96.045	  2.565e+000 	             	
        96.072	             	  2.772e+000 	
       102.050	  2.567e+000 	             	
       102.071	             	  2.770e+000 	
       108.043	  2.574e+000 	             	
       108.070	             	  2.773e+000 	
       114.042	  2.568e+000 	             	
       114.068	             	  2.770e+000 	
       120.040	  2.567e+000 	             	
       120.067	             	  2.768e+000 	
       126.039	  2.568e+000 	             	
       126.066	             	  2.772e+000 	
       132.044	  2.561e+000 	             	
       132.065	             	  2.768e+000 	
       138.036	  2.570e+000 	             	
       138.063	             	  2.768e+000 	
       144.035	  2.569e+000 	             	
       144.062	             	  2.771e+000 	
       150.034	  2.559e+000 	             	
       150.061	             	  2.762e+000 	
       156.033	  2.568e+000 	             	
       156.060	             	  2.766e+000 	
       162.037	  2.559e+000 	             	
       162.059	             	  2.761e+000 	
       168.030	  2.557e+000 	             	
       168.057	             	  2.761e+000 	
       174.028	  2.562e+000 	             	
       174.056	             	  2.768e+000 	
       180.028	  2.555e+000 	             	
       180.055	             	  2.768e+000 	
       186.027	  2.560e+000 	             	
       186.054	             	  2.765e+000 	
       192.030	  2.560e+000 	             	
       192.052	             	  2.763e+000 	
       198.024	  2.556e+000 	             	
       198.051	             	  2.764e+000 	
       204.022	  2.560e+000 	             	
       204.050	             	  2.762e+000 	
       210.020	  2.562e+000 	             	
       210.049	             	  2.758e+000 	
       216.022	  2.561e+000 	             	
       216.048	             	  2.765e+000 	
       222.018	  2.559e+000 	             	
       222.046	             	  2.761e+000 	
       228.016	  2.557e+000 	             	
       228.045	             	  2.763e+000 	
       234.016	  2.563e+000 	             	
       234.044	             	  2.764e+000 	
       240.014	  2.554e+000 	             	
       240.043	             	  2.762e+000 	
       246.016	  2.553e+000 	             	
       246.041	             	  2.759e+000 	
       252.011	  2.563e+000 	             	
       252.040	             	  2.758e+000 	
       258.010	  2.561e+000 	             	
       258.039	             	  2.758e+000 	
       264.009	  2.558e+000 	             	
       264.038	             	  2.754e+000 	
       270.008	  2.559e+000 	             	
       270.037	             	  2.759e+000 	
       276.011	  2.558e+000 	             	
       276.035	             	  2.758e+000 	
       282.004	  2.556e+000 	             	
       282.034	             	  2.765e+000 	
       288.003	  2.553e+000 	             	
       288.033	             	  2.765e+000 	
       294.002	  2.556e+000 	             	
       294.032	             	  2.770e+000 	
       300.000	  1.329e+000 	             	
       300.030	             	  1.383e+000 	
       306.006	  2.574e+000 	             	
       306.029	             	  2.774e+000 	
       312.028	             	  1.384e+000 	
       312.065	 -1.000e-002 	             	
       318.027	             	  2.770e+000 	
       318.064	  2.571e+000 	             	
       324.026	             	  2.773e+000 	
       324.063	  2.571e+000 	             	
       330.024	             	  2.764e+000 	
       330.061	  2.568e+000 	             	
       336.065	  2.563e+000 	             	
       336.090	             	  2.773e+000 	
       342.058	  2.563e+000 	             	
       342.089	             	  2.764e+000 	
       348.057	  2.565e+000 	             	
       348.087	             	  2.764e+000 	
       354.056	  2.558e+000 	             	
       354.086	             	  2.766e+000 	
       360.055	  2.563e+000 	             	
       360.085	             	  2.774e+000 	
       366.058	  2.559e+000 	             	
       366.084	             	  2.777e+000 	
       372.051	  2.560e+000 	             	
       372.082	             	  2.775e+000 	
       378.051	  2.549e+000 	             	
       378.081	             	  2.775e+000 	
       384.049	  2.558e+000 	             	
       384.080	             	  2.770e+000 	
       390.049	  2.558e+000 	             	
       390.079	             	  2.763e+000 	
       396.052	  2.557e+000 	             	
       396.078	             	  2.768e+000 	
       402.045	  2.569e+000 	             	
       402.076	             	  2.762e+000 	
       408.044	  2.552e+000 	             	
       408.075	             	  2.759e+000 	
       414.042	  2.559e+000 	             	
       414.074	             	  2.766e+000 	
       420.044	  2.558e+000 	             	
       420.073	             	  2.767e+000 	
       426.039	  2.549e+000 	             	
       426.071	             	  2.763e+000 	
       432.038	  2.555e+000 	             	
       432.070	             	  2.769e+000 	
       438.037	  2.553e+000 	             	
       438.069	             	  2.766e+000 	
       444.036	  2.556e+000 	             	
       444.068	             	  2.768e+000 	
       450.038	  2.546e+000 	             	
       450.067	             	  2.758e+000 	
       456.033	  2.548e+000 	             	
       456.065	             	  2.768e+000 	
       462.031	  2.552e+000 	             	
       462.064	             	  2.764e+000 	
       468.030	  2.552e+000 	             	
       468.063	             	  2.761e+000 	
       474.029	  2.550e+000 	             	
       474.062	             	  2.761e+000 	
       480.033	  2.548e+000 	             	
       480.060	             	  2.766e+000 	
       486.026	  2.547e+000 	             	
       486.059	             	  2.757e+000 	
       492.025	  2.555e+000 	             	
       492.058	             	  2.764e+000 	
       498.023	  2.556e+000 	             	
       498.057	             	  2.763e+000 	
       504.022	  2.556e+000 	             	
       504.056	             	  2.756e+000 	
       510.027	  2.553e+000 	             	
       510.054	             	  2.759e+000 	
       516.019	  2.555e+000 	             	
       516.053	             	  2.763e+000 	
